File: experiments/results/exp_1_clf/exceptions_details.csv
anneal.arff,0,0,"IF surface-quality = {E} AND hardness <= 77.50 THEN class = 3 (p=297, n=2, P=684, N=214)","IF carbon >= 3.50 THEN class = 3 (p=74, n=2, P=684, N=214)","IF surface-quality = {E} AND hardness <= 77.50 AND carbon >= 3.50 THEN class = U (p=2, n=0, P=40, N=858)",None,0.0339364,7.26684,0.717105
anneal.arff,1,0,"IF carbon >= 3.50 THEN class = 3 (p=74, n=2, P=684, N=214)","IF surface-quality = {E} THEN class = 3 (p=297, n=13, P=684, N=214)","IF carbon >= 3.50 AND surface-quality = {E} THEN class = U (p=2, n=0, P=40, N=858)",None,0.0148678,5.31148,0.554094
anneal.arff,2,0,"IF family = {?} AND hardness <= 75.00 AND len <= 0.00 AND strength <= 550.00 AND enamelability = {?} AND width >= 113.50 THEN class = 3 (p=267, n=12, P=684, N=214)","IF surface-quality = {E} THEN class = 3 (p=297, n=13, P=684, N=214)","IF family = {?} AND hardness <= 75.00 AND len <= 0.00 AND strength <= 550.00 AND enamelability = {?} AND width >= 113.50 AND product-type = {C} AND surface-finish = {?} AND m = {?} AND chrom = {?} AND phos = {?} AND marvi = {?} AND exptl = {?} AND ferro = {?} AND corr = {?} AND jurofm = {?} AND s = {?} AND p = {?} AND carbon >= 0.00 AND hardness >= 0.00 AND strength >= 0.00 AND len >= 0.00 AND bc = {?} AND bf = {?} AND shape = {COIL} AND width >= 600.05 AND bl = {?} AND blue/bright/varn/clean = {?} AND formability = {?} AND packing = {?} AND non-ageing = {?} AND width <= 1,320.00 AND cbond = {?} AND surface-quality = {E} THEN class = U (p=1, n=0, P=40, N=858)",None,0.0180113,4.59784,0.466009
cylinder-bands.arff,0,0,"IF ESA_Voltage >= 3.50 AND roller_durometer <= 36.50 THEN class = noband (p=55, n=8, P=312, N=228)","IF humifity <= 67.50 THEN class = noband (p=19, n=4, P=312, N=228)","IF ESA_Voltage >= 3.50 AND roller_durometer <= 36.50 AND humifity <= 67.50 THEN class = band (p=1, n=0, P=228, N=312)",2,0.00897564,3.25421,0.369391
mushroom.arff,0,0,"IF gill-size = {n} THEN class = p (p=2224, n=288, P=3916, N=4208)","IF spore-print-color = {h} THEN class = p (p=1584, n=48, P=3916, N=4208)","IF gill-size = {n} AND spore-print-color = {h} THEN class = e (p=48, n=0, P=4208, N=3916)",2,0.0302319,3.16354,0.57563
mushroom.arff,1,0,"IF odor = {n} THEN class = e (p=3408, n=120, P=4208, N=3916)","IF stalk-root = {c} THEN class = e (p=512, n=44, P=4208, N=3916)","IF odor = {n} AND stalk-root = {c} THEN class = p (p=8, n=0, P=3916, N=4208)",2,0.0182337,4.9959,0.67161
sonar.arff,0,0,"IF attribute_9 <= 0.10 THEN class = Rock (p=46, n=11, P=97, N=111)","IF attribute_47 <= 0.03 THEN class = Rock (p=7, n=1, P=97, N=111)","IF attribute_9 <= 0.10 AND attribute_47 <= 0.03 THEN class = Mine (p=1, n=0, P=111, N=97)",2,0.0205947,2.56906,0.509841
sonar.arff,1,0,"IF attribute_28 >= 0.99 THEN class = Mine (p=16, n=1, P=111, N=97)","IF attribute_1 >= 0.05 THEN class = Mine (p=20, n=3, P=111, N=97)","IF attribute_28 >= 0.99 AND attribute_1 >= 0.05 THEN class = Rock (p=1, n=0, P=97, N=111)",2,0.0160366,4.30135,0.572072
sonar.arff,2,0,"IF attribute_28 >= 0.96 THEN class = Mine (p=26, n=3, P=111, N=97)","IF attribute_1 >= 0.05 THEN class = Mine (p=20, n=3, P=111, N=97)","IF attribute_28 >= 0.96 AND attribute_1 >= 0.05 THEN class = Rock (p=1, n=0, P=97, N=111)",2,0.0181449,3.47928,0.45045